File: dataset_for_calibration.csv
,Capacity dV CCCT,Charge time dV CCCT,Coefficient of skewness CCCV,Discharge_Q,Energy dV CCCT,Entropy dV CCCT,Entropy dV CCCT Shannon,Frechet Distance CC curve,Group,Hausdorff Distance CC curve,Kurtosis coefficient CCCV,Lagged Cumulated Discharge Capacity,Lagged Cumulated Discharge Energy,Lagged Pseudo Resistace,Lagged cycle time,Mean DV CCCV,Recovery Voltage,SOH_discharge_capacity,Slope CCCV-CCCT
0,575.323,0.00496528,0.0102465,734.076,575.323,0.127279,8.69349,0.846925,8004.0,6.4461,0.128129,0.0,0.0,0.0,0.0,0.480619,2.70012,1.0,18.1549
1,567.157,0.00488425,0.0110084,725.69,567.157,0.127665,8.64386,0.846898,8004.0,6.40778,0.129003,734.076,2300.32,0.0253385,0.0818945,0.479761,2.69976,0.988576,18.4472
2,562.199,0.00483796,0.0122045,720.521,562.199,0.129818,8.66888,0.846882,8004.0,6.39464,0.130217,1459.77,4574.21,0.0203258,0.16282,0.479035,2.7,0.981535,18.6151
3,558.499,0.00482639,0.0130181,716.899,558.499,0.125824,8.64386,0.846878,8004.0,6.39127,0.130686,2180.29,6833.19,0.0197238,0.243175,0.477944,2.699924,0.976602,18.7507
4,552.994,0.00478009,0.0143094,711.609,552.994,0.126958,8.62205,0.846862,8004.0,6.38177,0.132791,2897.19,9082.29,0.0205093,0.323102,0.476109,2.7,0.969395,18.8315
5,549.109,0.00476851,0.0152717,707.538,549.109,0.126086,8.60733,0.846858,8004.0,6.38912,0.134178,3608.79,11316.1,0.0190048,0.402414,0.474563,2.70012,0.963849,18.8855
6,545.243,0.00475694,0.0160348,703.367,545.243,0.129577,8.66534,0.846853,8004.0,6.3846,0.134754,4316.33,13537.9,0.0185042,0.481267,0.474172,2.699964,0.958168,18.9313
7,541.127,0.00475694,0.016765,701.723,541.127,0.126931,8.64024,0.846853,8004.0,6.40045,0.136314,5019.7,15747.6,0.0179022,0.55966,0.472444,2.69986,0.955927,18.9565
8,537.207,0.00472222,0.0173352,698.006,537.207,0.126912,8.61102,0.846841,8004.0,6.3649,0.135682,5721.42,17953.1,0.0198643,0.63772,0.472169,2.6999,0.950864,19.0702
9,533.914,0.00473379,0.0179602,694.516,533.914,0.126742,8.62936,0.846845,8004.0,6.39882,0.13797,6419.43,20147.6,0.0187605,0.715337,0.470184,2.70002,0.946109,19.0405
10,530.394,0.00471064,0.0183246,690.917,530.394,0.126689,8.61839,0.846837,8004.0,6.36923,0.137069,7113.94,22332,0.0188618,0.792555,0.47041,2.69978,0.941208,19.1169
11,527.124,0.00472226,0.0189308,687.189,527.124,0.128716,8.59991,0.846841,8004.0,6.38467,0.137956,7804.86,24505.6,0.019062,0.86936,0.469604,2.69994,0.936128,19.1209
12,522.991,0.00473383,0.0197138,682.951,522.991,0.128682,8.62205,0.846845,8004.0,6.3965,0.13848,8492.05,26668.2,0.0196628,0.945737,0.469666,2.70002,0.930355,19.0489
13,519.298,0.00473383,0.0202425,678.974,519.298,0.128764,8.64746,0.846845,8004.0,6.42435,0.14085,9175,28818.2,0.019763,1.02163,0.467533,2.69998,0.924937,19.015
14,515.39,0.00472228,0.0203575,674.795,515.39,0.129826,8.61839,0.846841,8004.0,6.38882,0.138823,9853.98,30956.1,0.0212675,1.09707,0.468319,2.6999,0.919244,19.0445
15,508.692,0.00478009,0.0216993,667.089,508.692,0.131105,8.63662,0.846862,8004.0,6.43588,0.140256,10528.8,33081.8,0.0219695,1.17204,0.465869,2.70007,0.908747,18.9402
16,501.064,0.00480324,0.0223894,659.506,501.064,0.127709,8.633,0.84687,8004.0,6.46794,0.141802,11195.9,35185.3,0.024852,1.24614,0.464811,2.69991,0.898417,18.766
17,497.787,0.00483796,0.0226929,655.8,497.787,0.128676,8.64024,0.846882,8004.0,6.48235,0.141164,11855.4,37266.4,0.0250523,1.31935,0.465183,2.69998,0.893369,18.6729
18,493.821,0.00486111,0.0231815,651.836,493.821,0.129556,8.67948,0.84689,8004.0,6.50965,0.142419,12511.2,39337,0.0254708,1.39213,0.464332,2.70019,0.887968,18.543
19,490.766,0.00483796,0.0229021,649.132,490.766,0.128797,8.66534,0.846882,8004.0,6.48112,0.141258,13163,41396.1,0.0259582,1.46447,0.465342,2.69995,0.884285,18.582
20,486.886,0.00489583,0.023158,644.828,486.886,0.126579,8.66534,0.846902,8004.0,6.52596,0.14202,13812.1,43446.5,0.0240533,1.53645,0.464371,2.69986,0.878421,18.3792
21,484.417,0.00487268,0.0229257,642.735,484.417,0.126757,8.65464,0.846894,8004.0,6.50677,0.141835,14457,45485,0.0271803,1.60797,0.463531,2.69994,0.87557,18.4745
22,481.78,0.00491898,0.0231345,639.78,481.78,0.129458,8.67243,0.84691,8004.0,6.53673,0.142022,15099.7,47516.4,0.025075,1.67921,0.462809,2.69995,0.871544,18.2766
23,479.515,0.00493055,0.0230679,637.912,479.515,0.126905,8.67243,0.846914,8004.0,6.57974,0.144718,15739.5,49540.1,0.027557,1.75014,0.462042,2.70003,0.869001,18.2581
24,475.441,0.005,0.0228997,632.844,475.441,0.128831,8.68299,0.846937,8004.0,6.5847,0.141468,16377.4,51557.1,0.0252503,1.82082,0.463901,2.699872,0.862097,18.0692
25,473.348,0.0049537,0.0228807,631.357,473.348,0.127498,8.65821,0.846921,8004.0,6.57919,0.143648,17010.2,53560.6,0.0296622,1.89096,0.461927,2.699872,0.86007,18.2054
26,471.299,0.0049537,0.0222621,629.234,471.299,0.130055,8.64746,0.846921,8004.0,6.5491,0.14097,17641.6,55558.2,0.026354,1.96088,0.464429,2.70003,0.857179,18.1973
27,466.958,0.00505787,0.022363,624.407,466.958,0.12929,8.69,0.846955,8004.0,6.62139,0.141356,18270.8,57549.1,0.0264543,2.03056,0.464389,2.69995,0.850603,17.8154
28,466.207,0.00501157,0.0220871,624.024,466.207,0.127398,8.71081,0.84694,8004.0,6.58059,0.14039,18895.2,59527.9,0.031467,2.09973,0.464707,2.699832,0.850082,18.0595
29,463.104,0.00499999,0.0220877,621.041,463.104,0.128835,8.69697,0.846937,8004.0,6.58848,0.141398,19519.3,61504.3,0.0264543,2.1688,0.465249,2.69991,0.846017,17.9972
30,459.599,0.00509259,0.0219347,617.43,459.599,0.127066,8.73809,0.846966,8004.0,6.64776,0.141407,20140.3,63471.3,0.0277573,2.23752,0.464578,2.70003,0.841098,17.7178
31,458.542,0.00502314,0.021326,616.61,458.542,0.126844,8.7039,0.846944,8004.0,6.574,0.138971,20757.7,65429,0.0324695,2.30585,0.466714,2.69999,0.839982,17.9702
32,453.606,0.00510417,0.0218627,610.01,453.606,0.12795,8.70044,0.84697,8004.0,6.66047,0.141821,21374.3,67382.5,0.0288598,2.37405,0.463905,2.700037,0.83099,17.6856
33,451.732,0.00504629,0.0208837,609.085,451.732,0.127801,8.69,0.846951,8004.0,6.58489,0.138601,21984.3,69319.7,0.0335615,2.44158,0.466386,2.700037,0.82973,17.8641
34,445.993,0.00512731,0.0208768,606.842,445.993,0.125625,8.72792,0.846977,8004.0,6.63991,0.138823,22593.4,71252.8,0.028247,2.50894,0.467216,2.7,0.826675,17.5903
35,445.393,0.00515046,0.0210911,602.143,445.393,0.12805,8.73132,0.846984,8004.0,6.66094,0.139268,23200.3,73179.6,0.028749,2.5759,0.46569,2.70008,0.820274,17.5736
36,444.567,0.00506944,0.0206935,602.259,444.567,0.1301,8.71768,0.846959,8004.0,6.60846,0.139325,23802.4,75095.2,0.0343625,2.64251,0.46559,2.7,0.820432,17.767
37,442.94,0.00508101,0.0206541,600.808,442.94,0.128054,8.72451,0.846963,8004.0,6.62794,0.140056,24404.7,77008.9,0.0289493,2.70908,0.465871,2.700037,0.818455,17.7503
38,438.214,0.00515046,0.0207771,596.552,438.214,0.128477,8.73132,0.846984,8004.0,6.66872,0.139749,25005.5,78917.1,0.0296503,2.77546,0.466796,2.7002,0.812657,17.4648
39,437.204,0.00506945,0.01996,595.656,437.204,0.128384,8.69697,0.846959,8004.0,6.59406,0.137847,25602,80814.1,0.0346643,2.84137,0.467352,2.69997,0.811437,17.7275
40,434.705,0.00506944,0.0199081,593.665,434.705,0.12829,8.69697,0.846959,8004.0,6.59341,0.137699,26197.7,82706.4,0.0330275,2.90717,0.468178,2.69989,0.808725,17.7906
41,432.65,0.00505786,0.0200793,591.913,432.65,0.129597,8.69349,0.846955,8004.0,6.60965,0.139776,26791.4,84590.8,0.0323253,2.97269,0.4667,2.70005,0.806338,17.7839
42,428.943,0.00513889,0.0198736,588.273,428.943,0.127795,8.71768,0.846981,8004.0,6.63595,0.137368,27383.3,86469.1,0.0322252,3.03801,0.469073,2.70033,0.801379,17.5353
43,428.313,0.00503472,0.0193341,587.816,428.313,0.128175,8.71081,0.846948,8004.0,6.5516,0.136042,27971.5,88338.7,0.03784,3.10292,0.469736,2.70017,0.800757,17.8495
44,424.63,0.00505787,0.0192985,584.527,424.63,0.128456,8.69,0.846955,8004.0,6.58998,0.13792,28559.4,90203.7,0.0337283,3.16775,0.468206,2.70019,0.796276,17.8312
45,422.56,0.00509259,0.0194685,582.338,422.56,0.129108,8.70736,0.846966,8004.0,6.62723,0.138893,29143.9,92057.6,0.0337772,3.23218,0.468566,2.69993,0.793294,17.6707
46,420.677,0.00504629,0.0191852,581.234,420.677,0.128961,8.68299,0.846951,8004.0,6.59493,0.138777,29726.2,93903.2,0.0390355,3.29636,0.468566,2.70013,0.79179,17.8403