File: dataset_training.csv
,Capacity dV CCCT,Charge time dV CCCT,Coefficient of skewness CCCV,Discharge_Q,Energy dV CCCT,Entropy dV CCCT,Entropy dV CCCT Shannon,Frechet Distance CC curve,Group,Hausdorff Distance CC curve,Kurtosis coefficient CCCV,Lagged Cumulated Discharge Capacity,Lagged Cumulated Discharge Energy,Lagged Pseudo Resistace,Lagged cycle time,Mean DV CCCV,Recovery Voltage,SOH_discharge_capacity,Slope CCCV-CCCT
0,578.29,0.0049537,0.00969316,739.111,578.29,0.125544,8.66534,0.846921,8001.0,6.41894,0.126383,0.0,0.0,0.0,0.0,0.482614,2.69982,1.0,18.2203
4,557.071,0.00484953,0.0136186,718.367,557.071,0.128429,8.64386,0.846886,8001.0,6.43368,0.133055,2917.89,9141.8,0.018745,0.324957,0.476238,2.70016,0.971934,18.6273
8,543.025,0.00475694,0.0156565,705.848,543.025,0.126558,8.62205,0.846853,8001.0,6.3723,0.133689,5772.39,18097.3,0.0190453,0.6426,0.47481,2.70024,0.954996,18.8964
12,531.074,0.00474541,0.0180004,693.267,531.074,0.128835,8.61102,0.846849,8001.0,6.39063,0.136639,8576.48,26907.3,0.018745,0.954242,0.471049,2.69992,0.937975,19.0097
16,514.248,0.00481482,0.0222197,675.887,514.248,0.132138,8.62936,0.846874,8001.0,6.484,0.142115,11329.6,35568.1,0.0195615,1.26004,0.465623,2.7,0.91446,18.7114
20,502.989,0.00490741,0.023779,663.953,502.989,0.127805,8.66534,0.846906,8001.0,6.5538,0.143651,14015.3,44030.4,0.020067,1.55803,0.462869,2.700186,0.898313,18.4081
24,492.305,0.00498843,0.0240983,652.781,492.305,0.128174,8.66888,0.846932,8001.0,6.60882,0.144285,16655.3,52355.1,0.021979,1.8507,0.462003,2.70012,0.883198,18.0536
28,483.022,0.00498842,0.0232835,644.169,483.022,0.130422,8.65821,0.846933,8001.0,6.59304,0.142924,19253.2,60555.1,0.0243753,2.13849,0.461992,2.69996,0.871546,18.0377
32,473.217,0.00511574,0.0232627,632.203,473.217,0.131412,8.74483,0.846973,8001.0,6.68708,0.143668,21816.1,68646.6,0.0242738,2.42213,0.463081,2.7001,0.855356,17.582
36,465.153,0.00509259,0.022107,625.258,465.153,0.131299,8.7039,0.846966,8001.0,6.63794,0.140725,24335,76612.7,0.0268238,2.70079,0.464566,2.70002,0.84596,17.6696
40,456.311,0.00510416,0.0215263,617.608,456.311,0.132919,8.71081,0.84697,8001.0,6.64386,0.14058,26823.8,84484.4,0.027589,2.97597,0.464041,2.699995,0.835609,17.6923
44,446.853,0.00511574,0.0206037,608.877,446.853,0.130198,8.69697,0.846973,8001.0,6.63667,0.138865,29282.2,92251.8,0.0284915,3.24745,0.466786,2.70003,0.823796,17.6445
48,437.982,0.00516203,0.0204198,599.862,437.982,0.129814,8.75154,0.846987,8001.0,6.66915,0.139205,31698.4,99884.1,0.0337535,3.51395,0.466591,2.70022,0.8116,17.5254
52,429.957,0.00512731,0.0199015,592.857,429.957,0.130057,8.72792,0.846977,8001.0,6.64861,0.139282,34085.2,107426,0.0324505,3.777,0.466758,2.70002,0.802122,17.5502
56,422.203,0.00524306,0.0200945,585.56,422.203,0.129826,8.73809,0.847012,8001.0,6.72442,0.139267,36446.1,114876,0.033553,4.03697,0.467308,2.70001,0.79225,17.1941
60,418.272,0.00512731,0.0196582,581.655,418.272,0.12871,8.72451,0.846977,8001.0,6.64103,0.138443,38782.8,122254,0.0405758,4.29406,0.468502,2.69989,0.786965,17.5346
64,412.955,0.00515045,0.0199365,576.417,412.955,0.130735,8.7039,0.846984,8001.0,6.67112,0.139819,41099.7,129574,0.0350575,4.54886,0.466632,2.70018,0.779879,17.4637
68,407.599,0.00512731,0.0196626,572.038,407.599,0.129211,8.69349,0.846977,8001.0,6.64616,0.138953,43397.3,136846,0.0257343,4.80124,0.466866,2.70014,0.773954,17.5501
72,401.842,0.00511573,0.0197178,566.753,401.842,0.129267,8.69349,0.846973,8001.0,6.65654,0.140153,45675.8,144031,0.0377208,5.05137,0.467179,2.69979,0.766804,17.5585
76,392.806,0.00521991,0.0194339,560.014,392.806,0.131015,8.75822,0.847005,8001.0,6.67398,0.136795,47934.2,151142,0.0394253,5.29904,0.466948,2.70015,0.757685,17.3238
80,560.418,0.00488425,0.011926,722.157,560.418,0.126244,8.65821,0.846898,8002.0,6.40392,0.12889,1461.44,4579.82,0.0203043,0.162617,0.479579,2.69993,0.982769,18.5114
84,545.991,0.00476851,0.0148103,708.062,545.991,0.125276,8.63662,0.846858,8002.0,6.37815,0.133175,4328.52,13571.5,0.018162,0.48143,0.475569,2.70015,0.963586,18.8841
88,534.802,0.00472222,0.0172626,696.664,534.802,0.128263,8.60363,0.846841,8002.0,6.37205,0.136203,7143.2,22409.8,0.0181357,0.794327,0.472098,2.7,0.948075,19.0349
92,524.299,0.00473385,0.0194355,685.447,524.299,0.127689,8.61102,0.846845,8002.0,6.40746,0.138892,9913.33,31116.4,0.0187365,1.10212,0.470434,2.70012,0.932811,19.0136
96,507.046,0.00482639,0.02324,667.353,507.046,0.127287,8.65821,0.846878,8002.0,6.51498,0.144428,12622.9,39641,0.024498,1.40298,0.462907,2.69986,0.908186,18.6665
100,496.399,0.00490741,0.0237832,656.287,496.399,0.127541,8.67596,0.846906,8002.0,6.57756,0.145682,15276.8,47994.6,0.0226467,1.69733,0.461732,2.70017,0.893128,18.3427
104,486.954,0.00491898,0.0227433,647.133,486.954,0.127923,8.64746,0.84691,8002.0,6.54424,0.142109,17887.8,56218,0.024281,1.98668,0.464845,2.70003,0.88067,18.2835
108,475.252,0.00505787,0.0229058,634.97,475.252,0.129203,8.67243,0.846955,8002.0,6.64409,0.143291,20457.8,64315.3,0.025684,2.27122,0.462269,2.70003,0.864118,17.8616
112,464.338,0.00508101,0.0217234,626.135,464.338,0.128308,8.73809,0.846963,8002.0,6.63145,0.140588,22982.8,72279,0.0265198,2.55066,0.465037,2.69969,0.852095,17.7332
116,456.133,0.00513889,0.0214458,615.535,456.133,0.130296,8.72451,0.846981,8002.0,6.66825,0.140548,25471.1,80136,0.0277225,2.82574,0.464439,2.69989,0.837669,17.5728
120,446.87,0.00513889,0.020651,607.282,446.87,0.130619,8.73471,0.846981,8002.0,6.64798,0.138634,27925.3,87882.6,0.0300245,3.09685,0.467375,2.70009,0.826438,17.5572
124,406.94,0.00516204,0.0201762,575.48,406.94,0.133198,8.73471,0.846988,8002.0,6.68162,0.139768,30320.7,95415.4,0.0628535,3.42284,0.467701,2.70006,0.783159,17.4555
128,408.58,0.00499999,0.0195267,578.87,408.58,0.127828,8.66534,0.846936,8002.0,6.55615,0.138305,32634.1,102630,0.060262,3.67572,0.467603,2.70002,0.787772,18.0599
132,402.616,0.0049537,0.0189628,573,402.616,0.128614,8.7039,0.846921,8002.0,6.51744,0.137427,34941,109820,0.050041,3.92771,0.468945,2.7001,0.779784,18.1718
136,389.493,0.00515046,0.0186973,562.725,389.493,0.128634,8.7211,0.846984,8002.0,6.60478,0.134114,37220.7,116927,0.0493078,4.17648,0.471717,2.69987,0.765801,17.4946
140,394.217,0.00509259,0.0195717,564.003,394.217,0.127777,8.71768,0.846966,8002.0,6.62918,0.139065,39474.5,123965,0.0701205,4.42239,0.468463,2.70005,0.76754,17.7322
144,385.604,0.00501157,0.0189624,556.888,385.604,0.130369,8.70044,0.84694,8002.0,6.5621,0.137984,41713.2,130964,0.05549,4.6665,0.468171,2.70005,0.757857,17.9464
148,385.997,0.00503472,0.0192965,558.632,385.997,0.128948,8.69,0.846948,8002.0,6.55556,0.136081,43890.8,137730,0.0525837,4.90404,0.469516,2.69993,0.760231,17.9197
152,561.459,0.00481481,0.0118743,722.733,561.459,0.128423,8.633,0.846874,8003.0,6.38528,0.130577,1461.81,4575.11,0.0188653,0.162694,0.478857,2.70001,0.98315,18.7127
156,548.726,0.00473379,0.0149628,710.058,548.726,0.128036,8.62936,0.846845,8003.0,6.36322,0.133845,4333.88,13568.7,0.017641,0.482154,0.475238,2.70022,0.965909,18.9899
160,538.935,0.00469907,0.0171384,700.892,538.935,0.129304,8.63662,0.846832,8003.0,6.36345,0.136787,7161.23,22432.5,0.0167375,0.796531,0.471067,2.69994,0.95344,19.164
164,529.873,0.00468756,0.0193914,691.478,529.873,0.127758,8.59246,0.846828,8003.0,6.37191,0.13867,9951.07,31185.9,0.0174385,1.10656,0.469631,2.70014,0.940634,19.211
168,514.666,0.00478009,0.0232232,675.415,514.666,0.132013,8.61471,0.846862,8003.0,6.46807,0.143195,12688.3,39784,0.0207882,1.41053,0.463486,2.699929,0.918782,18.8818
172,504.633,0.00484954,0.0239803,665.183,504.633,0.127971,8.64024,0.846886,8003.0,6.51955,0.144259,15375,48228.8,0.0205903,1.7086,0.461988,2.70017,0.904864,18.5708
176,494.983,0.00488425,0.0232557,655.855,494.983,0.129861,8.67243,0.846898,8003.0,6.5026,0.140805,18021.4,56551.2,0.0217848,2.00195,0.464562,2.70017,0.892174,18.4719
180,485.142,0.00503472,0.0238203,645.093,485.142,0.127682,8.72451,0.846948,8003.0,6.65136,0.145104,20628.9,64753.6,0.0234895,2.29074,0.462236,2.70013,0.877535,17.8893
184,473.835,0.00510417,0.0226293,632.342,473.835,0.130286,8.70736,0.84697,8003.0,6.67026,0.14259,23185.8,72804.4,0.0239722,2.57373,0.463926,2.70002,0.860189,17.6307
188,465.791,0.00508102,0.0216781,625.668,465.791,0.130975,8.69697,0.846963,8003.0,6.63671,0.140998,25706.2,80746.1,0.027682,2.85258,0.464894,2.69993,0.85111,17.7345
192,456.122,0.00504629,0.0207536,617.397,456.122,0.126848,8.71081,0.846951,8003.0,6.59631,0.139454,28196,88585.6,0.0309128,3.12772,0.466111,2.69985,0.839859,17.8009
196,443.344,0.00523148,0.0208718,604.451,443.344,0.12767,8.73809,0.847009,8003.0,6.71481,0.139103,30643.7,96286.6,0.0299137,3.39783,0.467136,2.69977,0.822249,17.2333
200,437.798,0.00512731,0.0203843,599.627,437.798,0.130361,8.73471,0.846977,8003.0,6.65941,0.140026,33054.5,103881,0.0346153,3.66369,0.466627,2.69989,0.815686,17.6138
204,429.785,0.00511573,0.0201096,592.288,429.785,0.128013,8.7039,0.846973,8003.0,6.65161,0.139962,35441.9,111388,0.0327103,3.92669,0.466766,2.70013,0.805703,17.6614
208,420.957,0.00524306,0.0201477,584.888,420.957,0.127991,8.73471,0.847012,8003.0,6.71963,0.138857,37799.5,118800,0.0354115,4.18618,0.467202,2.70001,0.795636,17.1953
212,419.737,0.00513888,0.0203238,582.67,419.737,0.128546,8.70044,0.84698,8003.0,6.65397,0.139037,40134.5,126152,0.0395053,4.44303,0.466575,2.699939,0.792619,17.5119
216,413.789,0.00513888,0.0202379,577.609,413.789,0.127727,8.73132,0.846981,8003.0,6.65954,0.139215,42457.2,133464,0.0289778,4.69835,0.467902,2.69974,0.785735,17.5275
220,407.199,0.00510416,0.019693,571.562,407.199,0.130403,8.71081,0.84697,8003.0,6.6129,0.137376,44758,140691,0.0369982,4.95105,0.468177,2.69986,0.777509,17.6701
224,399.606,0.00523148,0.0198072,566.462,399.606,0.128561,8.73809,0.847008,8003.0,6.68686,0.136897,47036.6,147839,0.039305,5.20104,0.468053,2.70014,0.770571,17.2562
225,400.622,0.00511573,0.0199769,565.857,400.622,0.129282,8.71081,0.846973,8003.0,6.64162,0.139132,47603.1,149620,0.0436155,5.26312,0.467257,2.7001,0.769749,17.591