File: Data/dataset_for_feature_selections.csv
,Capacity dV CCCT,Charge time dV CCCT,Coefficient of skewness CCCV,Discharge_Q,Energy dV CCCT,Entropy dV CCCT,Entropy dV CCCT Shannon,Frechet Distance CC curve,Group,Hausdorff Distance CC curve,Kurtosis coefficient CCCV,Lagged Cumulated Discharge Capacity,Lagged Cumulated Discharge Energy,Lagged Pseudo Resistace,Lagged cycle time,Mean DV CCCV,Recovery Voltage,SOH_discharge_capacity,Slope CCCV-CCCT
0,578.29,0.0049537,0.00969316,739.111,578.29,0.125544,8.66534,0.846921,8001.0,6.41894,0.126383,0.0,0.0,0.0,0.0,0.482614,2.69982,1.0,18.2203
3,561.234,0.00486111,0.012619,722.843,561.234,0.129405,8.64024,0.84689,8001.0,6.43804,0.132538,2195.05,6876.37,0.0176018,0.244478,0.477485,2.69996,0.97799,18.4843
6,550.424,0.00479166,0.0143205,711.62,550.424,0.129641,8.60733,0.846866,8001.0,6.37983,0.131989,4351.24,13637.3,0.017542,0.484497,0.476452,2.69996,0.962806,18.8099
9,539.725,0.00475694,0.0164566,702.545,539.725,0.126812,8.62205,0.846853,8001.0,6.39484,0.135978,6478.24,20313.9,0.018243,0.721056,0.471789,2.700084,0.950527,18.9385
12,531.074,0.00474541,0.0180004,693.267,531.074,0.128835,8.61102,0.846849,8001.0,6.39063,0.136639,8576.48,26907.3,0.018745,0.954242,0.471049,2.69992,0.937975,19.0097
15,520.234,0.00478009,0.0211962,681.826,520.234,0.128622,8.62571,0.846862,8001.0,6.45391,0.141053,10647.7,33421.5,0.0195473,1.18433,0.466681,2.700078,0.922495,18.8554
18,508.326,0.00486111,0.0235795,669.732,508.326,0.129588,8.66178,0.84689,8001.0,6.53325,0.14418,12678.2,39816.8,0.0218218,1.40971,0.46347,2.70016,0.906132,18.5172
21,500.28,0.00491898,0.0233721,661.44,500.28,0.127894,8.65464,0.84691,8001.0,6.56315,0.143564,14679.3,46124,0.0227003,1.63167,0.463652,2.700146,0.894913,18.4056
24,492.305,0.00498843,0.0240983,652.781,492.305,0.128174,8.66888,0.846932,8001.0,6.60882,0.144285,16655.3,52355.1,0.021979,1.8507,0.462003,2.70012,0.883198,18.0536
27,484.485,0.00506945,0.0240328,645.022,484.485,0.129346,8.72792,0.846959,8001.0,6.65893,0.144154,18608.2,58517.2,0.0227708,2.06704,0.461647,2.69996,0.8727,17.7895
30,478.323,0.00509259,0.0232157,638.773,478.323,0.129048,8.72792,0.846966,8001.0,6.65684,0.142585,20539.5,64614.9,0.023673,2.28086,0.463365,2.7,0.864245,17.7088
33,471.542,0.00506944,0.0224501,631.744,471.542,0.129583,8.69,0.846959,8001.0,6.63092,0.141551,22448.3,70645.6,0.0272255,2.49215,0.464048,2.70006,0.854736,17.75
36,465.153,0.00509259,0.022107,625.258,465.153,0.131299,8.7039,0.846966,8001.0,6.63794,0.140725,24335,76612.7,0.0268238,2.70079,0.464566,2.70002,0.84596,17.6696
39,459.02,0.00511574,0.0218102,619.519,459.02,0.130049,8.72792,0.846973,8001.0,6.65204,0.140737,26204.3,82525.6,0.0279265,2.90749,0.464023,2.69987,0.838194,17.6289
42,451.587,0.00518519,0.0213475,612.744,451.587,0.128517,8.74147,0.846994,8001.0,6.69339,0.140239,28057.2,88380.2,0.0273888,3.11218,0.465796,2.70012,0.829029,17.3702
45,441.94,0.00515046,0.0206295,604.287,441.94,0.13,8.70044,0.846984,8001.0,6.66634,0.139777,29891.1,94173.5,0.0298957,3.31462,0.465471,2.69996,0.817586,17.4636
48,437.982,0.00516203,0.0204198,599.862,437.982,0.129814,8.75154,0.846987,8001.0,6.66915,0.139205,31698.4,99884.1,0.0337535,3.51395,0.466591,2.70022,0.8116,17.5254
51,431.808,0.00513888,0.0200251,594.468,431.808,0.130207,8.7211,0.84698,8001.0,6.6411,0.138231,33490.7,105549,0.035458,3.71151,0.466926,2.70006,0.804301,17.5496
54,426.463,0.00512731,0.019985,589.447,426.463,0.12864,8.7039,0.846977,8001.0,6.65575,0.139896,35268.5,111163,0.0365607,3.90734,0.466495,2.699775,0.797508,17.5735
57,422.782,0.00512731,0.0197332,585.746,422.782,0.128208,8.71425,0.846977,8001.0,6.63925,0.13835,37031.6,116728,0.0391715,4.10141,0.46737,2.70021,0.792501,17.6048
60,418.272,0.00512731,0.0196582,581.655,418.272,0.12871,8.72451,0.846977,8001.0,6.64103,0.138443,38782.8,122254,0.0405758,4.29406,0.468502,2.69989,0.786965,17.5346
63,414.392,0.00516203,0.0196619,577.589,414.392,0.127393,8.7039,0.846987,8001.0,6.62911,0.136027,40522.1,127749,0.0406723,4.48535,0.467928,2.70002,0.781465,17.5176
66,407.628,0.0053125,0.019997,573.098,407.628,0.132398,8.76155,0.847032,8001.0,6.75505,0.138352,42249.2,133213,0.041775,4.6752,0.467375,2.7001,0.775388,16.9773
69,406.162,0.00512731,0.0194386,570.437,406.162,0.128006,8.7211,0.846977,8001.0,6.61604,0.136421,43969.3,138651,0.03606,4.86406,0.469296,2.70014,0.771788,17.5969
72,401.842,0.00511573,0.0197178,566.753,401.842,0.129267,8.69349,0.846973,8001.0,6.65654,0.140153,45675.8,144031,0.0377208,5.05137,0.467179,2.69979,0.766804,17.5585
75,397.729,0.00511573,0.0194646,563.046,397.729,0.129059,8.72451,0.846973,8001.0,6.63383,0.138458,47371.1,149372,0.0388245,5.23731,0.4676,2.70007,0.761789,17.6211
78,574.521,0.00488426,0.010124,735.12,574.521,0.128448,8.67243,0.846898,8003.0,6.38491,0.127078,0.0,0.0,0.0,0.0,0.481261,2.69989,1.0,18.5373
81,558.815,0.00480324,0.0127455,720.207,558.815,0.12672,8.65464,0.84687,8003.0,6.40454,0.132683,2184.54,6837.2,0.018565,0.243097,0.477387,2.69974,0.979714,18.716
84,548.726,0.00473379,0.0149628,710.058,548.726,0.128036,8.62936,0.846845,8003.0,6.36322,0.133845,4333.88,13568.7,0.017641,0.482154,0.475238,2.70022,0.965909,18.9899
87,541.405,0.00472222,0.0167033,703.213,541.405,0.12808,8.62936,0.846841,8003.0,6.37525,0.136075,6458.02,20227,0.01764,0.718363,0.472298,2.70014,0.956596,19.0957
90,534.61,0.00468754,0.0181205,696.346,534.61,0.128948,8.60733,0.846828,8003.0,6.35615,0.136812,8560.79,26823.1,0.01774,0.952079,0.471647,2.70002,0.947255,19.2025
93,525.161,0.0046875,0.0210095,686.404,525.161,0.130083,8.56605,0.846828,8003.0,6.36788,0.139011,10642.6,33356.2,0.0188428,1.18338,0.467715,2.69994,0.933731,19.1941
96,514.666,0.00478009,0.0232232,675.415,514.666,0.132013,8.61471,0.846862,8003.0,6.46807,0.143195,12688.3,39784,0.0207882,1.41053,0.463486,2.699929,0.918782,18.8818
99,506.891,0.00478009,0.0231085,667.987,506.891,0.128875,8.62936,0.846862,8003.0,6.44738,0.14184,14707,46129.4,0.0229973,1.63453,0.463564,2.70013,0.908678,18.8148
102,499.295,0.00489583,0.0240589,659.638,499.295,0.128539,8.68299,0.846902,8003.0,6.51939,0.141891,16703.4,52405.6,0.0208835,1.85587,0.462232,2.69989,0.89732,18.4364
105,491.921,0.00496528,0.0239941,651.969,491.921,0.127667,8.65464,0.846925,8003.0,6.58472,0.143584,18677.2,58613.2,0.022487,2.0746,0.462118,2.69977,0.886889,18.1228
108,485.142,0.00503472,0.0238203,645.093,485.142,0.127682,8.72451,0.846948,8003.0,6.65136,0.145104,20628.9,64753.6,0.0234895,2.29074,0.462236,2.70013,0.877535,17.8893
111,474.428,0.00504629,0.0220674,635.898,474.428,0.13077,8.69,0.846951,8003.0,6.60025,0.139971,22549.9,70802.5,0.0235705,2.50346,0.465475,2.70026,0.865027,17.8721
114,469.697,0.00504629,0.0217732,629.66,469.697,0.129995,8.67596,0.846952,8003.0,6.61573,0.141217,24449.9,76787.8,0.0239722,2.71363,0.464314,2.70006,0.856541,17.8404
117,463.124,0.00506944,0.0215226,623.803,463.124,0.128925,8.71081,0.846959,8003.0,6.64337,0.142097,26331.9,82716.8,0.0268023,2.92176,0.46468,2.69997,0.848573,17.7513
120,456.122,0.00504629,0.0207536,617.397,456.122,0.126848,8.71081,0.846951,8003.0,6.59631,0.139454,28196,88585.6,0.0309128,3.12772,0.466111,2.69985,0.839859,17.8009
123,445.62,0.00509259,0.0207647,607.56,445.62,0.127428,8.7039,0.846966,8003.0,6.6414,0.140687,30036.1,94376,0.03202,3.33083,0.465262,2.70013,0.826477,17.71
126,440.68,0.00509259,0.0204548,602.505,440.68,0.128758,8.74147,0.846966,8003.0,6.6274,0.139446,31852.5,100095,0.030003,3.53118,0.466764,2.70025,0.819602,17.6865
129,435.745,0.00508101,0.0201612,597.947,435.745,0.130269,8.69697,0.846963,8003.0,6.60042,0.137532,33654.1,105767,0.031306,3.72976,0.468498,2.70001,0.813401,17.7031
132,429.785,0.00511573,0.0201096,592.288,429.785,0.128013,8.7039,0.846973,8003.0,6.65161,0.139962,35441.9,111388,0.0327103,3.92669,0.466766,2.70013,0.805703,17.6614
135,424.226,0.00509259,0.0197887,587.163,424.226,0.128323,8.7211,0.846966,8003.0,6.62355,0.138962,37212.3,116956,0.0344078,4.12157,0.466568,2.69981,0.798731,17.6865
138,419.729,0.00509258,0.019576,582.997,419.729,0.128821,8.7039,0.846966,8003.0,6.6105,0.137711,38969,122480,0.03511,4.31482,0.468567,2.70001,0.793064,17.655
141,418.103,0.00515046,0.0201838,581.125,418.103,0.126028,8.73132,0.846984,8003.0,6.66152,0.139017,40717.2,127985,0.0343922,4.50713,0.466496,2.6999,0.790517,17.5658
144,413.789,0.00513888,0.0202379,577.609,413.789,0.127727,8.73132,0.846981,8003.0,6.65954,0.139215,42457.2,133464,0.0289778,4.69835,0.467902,2.69974,0.785735,17.5275
147,408.631,0.00511573,0.0198825,573.083,408.631,0.128057,8.7211,0.846973,8003.0,6.64347,0.139299,44184.9,138893,0.0411097,4.88813,0.466999,2.699939,0.779577,17.5988
150,404.314,0.00510416,0.0195796,569.313,404.314,0.131043,8.71768,0.84697,8003.0,6.61762,0.13767,45899.4,144275,0.043115,5.07631,0.468112,2.699939,0.77445,17.6308
153,400.622,0.00511573,0.0199769,565.857,400.622,0.129282,8.71081,0.846973,8003.0,6.64162,0.139132,47603.1,149620,0.0436155,5.26312,0.467257,2.7001,0.769749,17.591